title:Test2 MTGA 8_1_20, start timestamp:1596313334.692925, stop timestamp:1596315010.152104, headset type:EPOCPLUS, headset serial:4A2C00E6, headset firmware:633, subject name:Zak Scavotto, channels:166, sampling rate:eeg_128;mot_32;pm_0.1;pow_8, samples:214094    , version:2.0,,,,,,,
Timestamp,EEG.Counter,EEG.Interpolated,EEG.AF3,EEG.F7,EEG.F3,EEG.FC5,EEG.T7,EEG.P7,EEG.O1,EEG.O2,EEG.P8,EEG.T8,EEG.FC6,EEG.F4,EEG.F8,EEG.AF4,EEG.RawCq
1596313335,111,0,4200.384766,4149.358887,4173.077148,4195,4182.179688,4174.871582,4170.512695,4183.077148,4157.563965,4167.05127,4123.589844,4173.717773,4128.205078,4159.230957,1800
1596313335,112,0,4195.897461,4146.922852,4175,4193.077148,4189.102539,4176.025879,4175.897461,4185,4171.538574,4172.307617,4130.897461,4184.487305,4138.205078,4163.717773,2095
1596313335,113,0,4183.333496,4148.589844,4168.589844,4185.128418,4189.871582,4171.666504,4175.641113,4180.897461,4172.307617,4174.358887,4130.769043,4182.436035,4131.025879,4161.282227,3227
1596313335,114,0,4184.230957,4147.563965,4169.615234,4189.102539,4181.922852,4172.307617,4172.692383,4178.717773,4163.205078,4169.743652,4122.179688,4170.128418,4119.230957,4157.820313,2834
1596313335,115,0,4184.743652,4145.512695,4175,4198.333496,4182.05127,4177.05127,4174.102539,4176.153809,4166.922852,4168.333496,4120,4168.461426,4122.179688,4160.512695,1800
1596313335,116,0,4184.230957,4149.230957,4177.563965,4200.128418,4190.512695,4177.692383,4180.128418,4177.692383,4176.538574,4178.077148,4127.692383,4179.487305,4132.307617,4163.717773,2095
1596313335,117,0,4193.717773,4156.922852,4179.871582,4206.025879,4195.384766,4177.307617,4184.358887,4185.512695,4180,4183.589844,4132.05127,4184.743652,4137.692383,4165.128418,3227
1596313335,118,0,4196.410156,4160.384766,4178.974121,4214.487305,4188.846191,4176.538574,4177.692383,4185.641113,4174.102539,4175.256348,4131.666504,4179.743652,4138.589844,4165.256348,2834
1596313335,119,0,4185.512695,4151.282227,4173.589844,4213.717773,4174.230957,4173.846191,4169.358887,4178.333496,4163.461426,4168.077148,4128.717773,4173.846191,4132.563965,4165.256348,1800
1596313335,120,0,4184.743652,4144.230957,4173.974121,4211.538574,4175.512695,4173.974121,4176.794922,4178.846191,4162.820313,4172.436035,4125.897461,4174.743652,4122.692383,4163.461426,2095
1596313335,121,0,4195.641113,4148.077148,4182.05127,4213.205078,4189.487305,4174.358887,4181.538574,4186.794922,4172.436035,4183.461426,4127.05127,4182.94873,4122.94873,4167.94873,3227
1596313335,122,0,4195.897461,4136.410156,4182.179688,4217.179688,4190,4172.05127,4171.410156,4188.205078,4177.307617,4188.589844,4130.897461,4186.410156,4131.922852,4172.563965,2834
1596313335,123,0,4188.333496,4105.128418,4177.179688,4225.512695,4183.077148,4173.333496,4168.717773,4179.615234,4171.282227,4185,4131.794922,4183.461426,4134.102539,4170.128418,1800
1596313335,124,0,4186.666504,4083.846191,4176.794922,4233.974121,4186.153809,4175.769043,4172.692383,4175.897461,4167.94873,4183.077148,4129.487305,4182.563965,4132.179688,4166.922852,2095
1596313335,125,0,4185.641113,4080,4174.358887,4230.769043,4186.538574,4174.743652,4172.179688,4181.794922,4172.179688,4185.384766,4128.205078,4177.820313,4130.641113,4166.666504,3227
1596313335,126,0,4182.05127,4077.179443,4168.846191,4226.153809,4180.512695,4173.974121,4168.205078,4183.077148,4173.461426,4181.282227,4125.384766,4168.974121,4123.717773,4164.358887,2834
1596313335,127,0,4182.179688,4078.076904,4171.153809,4235.897461,4178.461426,4173.589844,4168.077148,4179.743652,4172.94873,4179.230957,4123.461426,4168.077148,4121.538574,4162.05127,57
1596313335,0,0,4183.589844,4083.076904,4174.230957,4242.820313,4175.512695,4171.922852,4169.487305,4183.717773,4172.179688,4182.94873,4125.256348,4172.05127,4127.692383,4164.615234,2688
1596313335,1,0,4182.94873,4083.461426,4172.94873,4241.282227,4174.871582,4174.487305,4170.256348,4186.025879,4173.333496,4185.384766,4131.025879,4175.128418,4128.333496,4166.410156,2894
1596313335,2,0,4184.358887,4082.692383,4174.871582,4245.512695,4178.461426,4177.820313,4167.05127,4174.871582,4174.102539,4186.538574,4137.179688,4181.153809,4124.487305,4165.769043,3430
1596313335,3,0,4185.769043,4086.666748,4175.128418,4251.282227,4171.410156,4173.333496,4159.102539,4166.410156,4169.615234,4181.922852,4137.94873,4182.05127,4123.205078,4165.769043,1900
1596313335,4,0,4187.05127,4087.179443,4173.846191,4254.487305,4164.230957,4169.230957,4157.563965,4170.769043,4167.563965,4177.820313,4135.897461,4181.922852,4125.256348,4167.820313,3527
1596313335,5,0,4187.94873,4086.281982,4175.769043,4261.282227,4173.846191,4173.461426,4163.205078,4172.307617,4166.282227,4176.153809,4131.922852,4187.820313,4126.410156,4168.846191,1129
1596313335,6,0,4187.307617,4093.461426,4180.128418,4267.05127,4184.358887,4177.179688,4170.256348,4171.922852,4167.307617,4174.102539,4126.922852,4186.666504,4121.666504,4165,3414
1596313335,7,0,4186.282227,4096.666504,4182.179688,4266.538574,4185.897461,4175.769043,4175,4181.666504,4173.461426,4174.871582,4127.179688,4180,4118.333496,4164.102539,2624
1596313335,8,0,4185.384766,4093.205078,4179.230957,4262.692383,4182.307617,4177.820313,4177.05127,4184.743652,4176.025879,4175.769043,4130.769043,4176.666504,4119.743652,4165.897461,3364
1596313335,9,0,4185.512695,4094.102539,4178.077148,4254.230957,4172.563965,4176.025879,4168.717773,4173.205078,4169.487305,4172.179688,4128.589844,4178.846191,4120.128418,4165.641113,3543
1596313335,10,0,4186.538574,4095.256348,4180.512695,4243.717773,4166.538574,4169.615234,4155.128418,4166.922852,4160.256348,4166.153809,4123.974121,4179.871582,4113.846191,4161.922852,2845
1596313335,11,0,4187.05127,4093.076904,4179.487305,4238.717773,4174.487305,4169.230957,4155.256348,4167.94873,4158.205078,4164.358887,4121.794922,4175.769043,4109.743652,4161.153809,1812
1596313335,12,0,4186.922852,4093.589844,4177.05127,4241.025879,4186.410156,4172.692383,4161.922852,4167.94873,4160.769043,4167.94873,4123.461426,4174.102539,4114.358887,4164.358887,2103
1596313335,13,0,4184.102539,4095.256348,4178.589844,4239.615234,4187.692383,4174.487305,4160.384766,4170.128418,4166.666504,4172.692383,4125,4177.05127,4118.717773,4163.974121,3225
1596313335,14,0,4173.717773,4092.307617,4171.410156,4230.769043,4176.410156,4168.974121,4156.025879,4171.794922,4164.102539,4165,4121.666504,4169.743652,4111.538574,4159.487305,2845
1596313335,15,0,4168.717773,4091.025635,4161.282227,4232.05127,4168.589844,4165.769043,4153.461426,4167.563965,4154.102539,4154.743652,4118.333496,4157.436035,4103.333496,4156.666504,1812
1596313335,16,0,4178.205078,4097.436035,4170.769043,4247.05127,4179.102539,4173.077148,4158.589844,4167.563965,4154.743652,4165,4121.794922,4162.563965,4108.974121,4161.666504,0
1596313335,17,0,4183.077148,4101.153809,4178.589844,4250.897461,4189.615234,4176.025879,4172.563965,4173.846191,4163.205078,4175.128418,4123.461426,4169.615234,4113.589844,4162.692383,0
1596313335,18,0,4178.974121,4097.436035,4170.641113,4242.563965,4185.897461,4169.615234,4173.717773,4174.743652,4163.846191,4170.128418,4120.769043,4165.512695,4109.743652,4159.230957,0
1596313335,19,0,4181.153809,4098.205078,4171.666504,4246.922852,4184.615234,4170.769043,4155.769043,4168.205078,4158.333496,4168.846191,4121.922852,4165.384766,4110.641113,4161.025879,0
1596313335,20,0,4181.922852,4105.128418,4177.05127,4255.128418,4186.666504,4176.410156,4150.256348,4163.461426,4157.692383,4172.692383,4123.589844,4164.615234,4115.128418,4164.615234,0
1596313335,21,0,4171.794922,4102.820313,4167.05127,4249.358887,4183.077148,4172.94873,4157.94873,4159.358887,4157.307617,4167.436035,4121.025879,4155.641113,4111.922852,4160.256348,0
1596313335,22,0,4166.794922,4099.743652,4161.538574,4246.666504,4185.769043,4170.384766,4157.436035,4154.743652,4155.128418,4162.94873,4120.384766,4150.384766,4105.256348,4156.282227,0
1596313335,23,0,4170.897461,4105,4167.436035,4255.256348,4185.769043,4170.256348,4148.333496,4154.102539,4152.05127,4166.538574,4119.871582,4156.666504,4106.025879,4160.384766,0
1596313335,24,0,4170.769043,4105.256348,4164.743652,4254.615234,4176.410156,4163.974121,4138.205078,4153.589844,4148.846191,4167.436035,4119.102539,4158.077148,4107.436035,4158.077148,0
1596313335,25,0,4164.615234,4102.692383,4160.256348,4244.487305,4175.897461,4163.333496,4136.410156,4151.153809,4147.05127,4161.922852,4121.794922,4150.769043,4106.025879,4153.461426,0
1596313335,26,0,4163.974121,4106.922852,4163.974121,4246.410156,4183.461426,4170.512695,4147.94873,4152.820313,4148.205078,4163.589844,4125.256348,4149.871582,4110.384766,4155.384766,0
1596313335,27,0,4170,4109.230957,4166.282227,4256.025879,4183.974121,4170.769043,4155.769043,4156.538574,4149.102539,4168.077148,4123.461426,4159.743652,4113.846191,4158.717773,0
1596313335,28,0,4169.743652,4105.641113,4165.384766,4258.846191,4174.871582,4162.94873,4150.256348,4153.333496,4147.179688,4162.94873,4124.102539,4168.974121,4111.153809,4159.102539,0
1596313335,29,0,4173.333496,4111.410156,4172.692383,4262.692383,4166.666504,4161.666504,4150.256348,4151.025879,4146.282227,4159.102539,4130.641113,4174.743652,4112.05127,4160.512695,0
1596313335,30,1,4174.304199,4111.172363,4172.472656,4262.545898,4167.692383,4161.904785,4150.494629,4151.959473,4147.490723,4160.622559,4130.567871,4174.13916,4112.802246,4160.970703,0
1596313335,31,1,4175.274902,4110.934082,4172.25293,4262.399414,4168.717773,4162.143066,4150.732422,4152.893555,4148.699707,4162.143066,4130.494629,4173.534668,4113.553223,4161.428711,0
1596313335,32,1,4176.245605,4110.695801,4172.033203,4262.25293,4169.743652,4162.380859,4150.970703,4153.827637,4149.908203,4163.663086,4130.421387,4172.930176,4114.304199,4161.88623,0
1596313335,33,1,4177.216309,4110.458008,4171.812988,4262.106445,4170.769043,4162.619141,4151.208984,4154.761719,4151.117188,4165.183105,4130.348145,4172.326172,4115.055176,4162.344238,0
1596313335,34,1,4178.187012,4110.219727,4171.593262,4261.959473,4171.794922,4162.856934,4151.446777,4155.695801,4152.326172,4166.703125,4130.274902,4171.72168,4115.805664,4162.802246,0
1596313335,35,1,4179.157715,4109.981445,4171.373535,4261.812988,4172.820313,4163.095215,4151.685059,4156.629883,4153.534668,4168.223633,4130.20166,4171.117188,4116.556641,4163.260254,0
1596313335,36,0,4180.128418,4109.743652,4171.153809,4261.666504,4173.846191,4163.333496,4151.922852,4157.563965,4154.743652,4169.743652,4130.128418,4170.512695,4117.307617,4163.717773,0
1596313335,37,0,4165.256348,4101.282227,4170.512695,4245.641113,4171.282227,4164.230957,4163.589844,4171.153809,4155,4173.205078,4125.128418,4172.307617,4107.563965,4156.666504,0
1596313335,38,0,4166.538574,4108.846191,4169.487305,4250.769043,4181.153809,4167.820313,4170.512695,4169.615234,4155.641113,4171.025879,4123.205078,4174.358887,4100.128418,4156.282227,0
1596313335,39,0,4171.922852,4127.307617,4166.922852,4264.358887,4188.846191,4169.230957,4155.384766,4156.538574,4150.897461,4158.333496,4117.820313,4163.461426,4093.718018,4159.615234,0
1596313335,40,0,4170.128418,4138.205078,4166.922852,4266.025879,4184.615234,4165.897461,4141.025879,4151.922852,4139.487305,4148.974121,4105.641113,4153.717773,4077.05127,4153.589844,0
1596313335,41,0,4180.128418,4149.615234,4173.461426,4272.307617,4181.410156,4164.487305,4146.282227,4156.282227,4135.641113,4143.461426,4098.461426,4154.102539,4053.589844,4146.282227,0
1596313335,42,0,4186.538574,4163.974121,4169.871582,4280.897461,4183.974121,4163.205078,4144.615234,4153.205078,4132.563965,4129.358887,4089.615479,4146.153809,4030.384521,4141.794922,0
1596313335,43,0,4178.205078,4169.102539,4162.307617,4282.820313,4182.820313,4160.897461,4137.436035,4144.871582,4120.512695,4110.641113,4076.281982,4131.922852,4005.897461,4131.922852,0
1596313335,44,0,4181.410156,4179.102539,4166.922852,4291.794922,4184.230957,4162.179688,4140,4144.102539,4112.563965,4102.94873,4071.666748,4129.358887,3986.794922,4127.307617,0
1596313335,45,0,4190.897461,4199.358887,4170.384766,4302.436035,4190.512695,4163.974121,4132.436035,4150.769043,4113.974121,4105.641113,4067.435791,4127.05127,3975.384521,4128.077148,0
1596313335,46,0,4185.128418,4206.538574,4162.820313,4298.077148,4189.615234,4162.563965,4117.179688,4149.743652,4111.666504,4096.666504,4050.512939,4110.769043,3957.435791,4119.615234,0
1596313335,47,0,4183.589844,4206.153809,4161.025879,4299.871582,4188.717773,4163.717773,4125.512695,4144.615234,4109.230957,4082.820557,4042.307617,4103.717773,3942.307617,4112.820313,0
1596313335,48,0,4191.282227,4210.512695,4168.333496,4311.410156,4194.743652,4166.794922,4142.05127,4143.589844,4106.025879,4079.230713,4047.820557,4112.563965,3936.794922,4115.512695,0
1596313335,49,0,4181.025879,4205,4162.179688,4306.282227,4191.538574,4165.641113,4140.128418,4139.487305,4097.692383,4073.846191,4042.692383,4107.307617,3931.281982,4107.94873,0
1596313335,50,0,4167.436035,4195,4151.666504,4294.487305,4182.820313,4165.641113,4142.94873,4133.974121,4098.974121,4067.820557,4035.512939,4093.718018,3928.333252,4097.820313,0
1596313335,51,0,4165,4195,4153.589844,4294.102539,4186.794922,4166.666504,4154.615234,4139.871582,4108.205078,4073.974365,4038.461426,4095.128174,3931.538574,4099.743652,0
1596313335,52,0,4160.384766,4191.794922,4156.410156,4295.512695,4185,4165.641113,4157.179688,4148.846191,4112.05127,4080.769287,4040.641113,4101.922852,3933.076904,4102.692383,0
1596313335,53,0,4153.077148,4184.358887,4149.230957,4289.487305,4173.589844,4164.487305,4154.230957,4145.256348,4107.94873,4077.564209,4039.230713,4098.717773,3930.384521,4098.974121,0
1596313335,54,0,4152.307617,4183.974121,4145.512695,4281.666504,4178.846191,4165.256348,4154.102539,4143.205078,4106.025879,4077.435791,4039.358887,4094.871826,3933.846191,4096.538574,0
1596313335,55,0,4151.666504,4184.615234,4147.179688,4278.205078,4185,4166.922852,4147.436035,4147.436035,4107.94873,4080.897461,4038.076904,4094.230713,3939.743652,4093.076904,0
1596313335,56,0,4150,4180.897461,4147.05127,4282.692383,4178.461426,4165.641113,4137.307617,4144.102539,4106.538574,4078.461426,4040.769287,4096.922852,3941.025635,4087.94873,0
1596313335,57,0,4155.256348,4183.333496,4153.717773,4291.538574,4180.641113,4162.94873,4137.307617,4141.282227,4105.897461,4082.05127,4050.128174,4105.512695,3942.820557,4093.333252,0
1596313335,58,0,4162.05127,4186.922852,4160.641113,4291.410156,4187.436035,4163.717773,4140.769043,4144.487305,4105,4089.871826,4050.641113,4110.384766,3949.102539,4099.871582,0
1596313335,59,0,4166.666504,4185.512695,4157.692383,4288.589844,4183.333496,4164.358887,4140.256348,4142.307617,4099.102539,4086.923096,4048.846191,4108.974121,3954.487061,4099.487305,0
1596313335,60,0,4171.282227,4186.922852,4158.205078,4293.205078,4176.922852,4163.077148,4136.666504,4134.743652,4095.384521,4080.897461,4056.153809,4113.333496,3955.128174,4102.179688,0
1596313335,61,0,4176.666504,4192.820313,4168.077148,4295.384766,4184.615234,4163.589844,4137.563965,4138.846191,4104.230957,4090,4062.94873,4122.94873,3959.487061,4105.769043,0
1596313335,62,0,4176.153809,4187.692383,4165,4285.256348,4190.384766,4162.692383,4141.666504,4142.692383,4110.384766,4096.666504,4059.230713,4117.820313,3959.358887,4101.794922,0
1596313335,63,0,4163.717773,4174.487305,4148.205078,4273.846191,4177.436035,4161.666504,4137.179688,4133.589844,4101.794922,4089.487061,4053.205078,4103.205078,3952.692383,4096.282227,0
1596313335,64,0,4159.487305,4175.897461,4148.717773,4276.282227,4168.333496,4162.179688,4134.615234,4130.897461,4099.871582,4089.871826,4054.102539,4104.615234,3952.435791,4100.769043,2682
1596313335,65,0,4169.743652,4185.641113,4159.743652,4282.692383,4180.384766,4162.820313,4147.05127,4141.153809,4109.615234,4098.717773,4056.281982,4112.692383,3958.974365,4105.897461,2888
1596313335,66,0,4170.897461,4182.179688,4155.897461,4280.769043,4188.205078,4163.461426,4158.077148,4144.743652,4116.410156,4100.512695,4056.153809,4111.153809,3957.94873,4102.436035,3439
1596313335,67,0,4158.333496,4171.666504,4146.410156,4276.666504,4183.205078,4163.589844,4156.410156,4139.358887,4113.461426,4095.256348,4053.974365,4104.871582,3953.461426,4097.820313,1896
1596313335,68,0,4155.512695,4171.794922,4148.974121,4277.179688,4184.871582,4164.615234,4152.94873,4141.410156,4112.820313,4095.128174,4055.641113,4105,3958.974365,4099.615234,3538
1596313335,69,0,4158.333496,4172.563965,4152.94873,4278.461426,4184.487305,4164.230957,4156.794922,4148.846191,4119.487305,4098.717773,4057.564209,4110.512695,3957.179443,4100.512695,1131
1596313335,70,0,4153.974121,4166.538574,4151.666504,4275.256348,4175.641113,4164.358887,4168.717773,4152.436035,4120.256348,4096.410156,4055.384521,4114.102539,3951.025635,4097.94873,3414
1596313335,71,0,4159.743652,4171.666504,4154.743652,4277.179688,4178.461426,4163.717773,4168.077148,4154.358887,4119.871582,4098.589844,4057.307617,4112.692383,3960.256348,4100.512695,2626
1596313335,72,0,4168.846191,4182.179688,4160.384766,4282.820313,4186.153809,4161.794922,4146.922852,4149.487305,4120.641113,4105.256348,4057.820557,4109.487305,3962.05127,4102.307617,3354
1596313335,73,0,4161.922852,4179.487305,4158.077148,4283.077148,4185.641113,4163.461426,4138.846191,4142.820313,4117.563965,4106.025879,4052.564209,4107.563965,3949.615479,4098.333496,3537
1596313335,74,0,4154.358887,4172.94873,4153.077148,4282.307617,4186.538574,4164.358887,4150.641113,4146.153809,4117.436035,4105.128418,4053.974365,4107.307617,3950.897461,4098.461426,2857
1596313335,75,0,4157.436035,4174.743652,4153.205078,4285.769043,4191.282227,4163.589844,4152.563965,4154.487305,4123.589844,4109.230957,4061.410156,4108.205078,3962.564209,4102.307617,1821
1596313335,76,0,4155.384766,4169.358887,4149.230957,4282.692383,4183.846191,4161.794922,4144.102539,4150.641113,4124.871582,4108.974121,4060.769287,4107.563965,3959.615479,4100.256348,2109
1596313335,77,0,4151.282227,4158.589844,4142.94873,4279.743652,4178.589844,4160.256348,4145.897461,4142.94873,4120.256348,4105.128418,4057.820557,4107.05127,3960,4096.794922,3231
1596313335,78,0,4155.641113,4156.025879,4148.205078,4286.538574,4188.333496,4162.820313,4154.615234,4149.358887,4122.307617,4107.94873,4062.435791,4110,3969.871826,4100.512695,2857
1596313335,79,0,4156.538574,4153.205078,4153.974121,4286.025879,4192.692383,4167.436035,4157.563965,4156.153809,4124.871582,4108.846191,4062.692383,4111.282227,3965.897461,4103.205078,1821
1596313335,80,0,4150.512695,4150.897461,4147.692383,4279.615234,4188.205078,4167.94873,4154.358887,4148.974121,4118.974121,4102.436035,4060.384521,4107.94873,3957.179443,4103.717773,2109
1596313335,81,0,4145.128418,4146.794922,4139.102539,4278.077148,4184.487305,4163.717773,4155.256348,4144.102539,4109.615234,4092.564209,4061.538574,4102.307617,3955.897461,4100.897461,3231
1596313335,82,0,4147.820313,4143.205078,4142.05127,4276.922852,4184.102539,4162.179688,4155.384766,4152.436035,4114.102539,4096.538574,4063.718018,4099.487305,3958.974365,4098.077148,2857
1596313335,83,0,4155.384766,4148.974121,4150.897461,4280,4185.256348,4163.589844,4148.461426,4152.692383,4128.461426,4110.641113,4068.076904,4107.307617,3966.410156,4105.512695,1821
1596313335,84,0,4158.205078,4156.410156,4153.717773,4287.820313,4185.769043,4162.820313,4139.102539,4140.256348,4127.692383,4111.153809,4072.179443,4117.563965,3971.666748,4112.563965,2109
1596313335,85,0,4156.410156,4154.615234,4152.692383,4288.846191,4184.230957,4160.769043,4129.358887,4133.974121,4117.563965,4107.05127,4072.435791,4116.410156,3969.871826,4111.666504,3231
1596313335,86,0,4153.846191,4148.077148,4150,4279.230957,4176.153809,4160.128418,4130,4137.436035,4115.641113,4107.436035,4068.589844,4111.025879,3966.281982,4110.897461,2857
1596313336,87,0,4150.512695,4150.256348,4148.846191,4277.307617,4171.538574,4160.897461,4144.358887,4145.641113,4122.563965,4108.333496,4064.487061,4111.153809,3965.128174,4113.077148,1821
1596313336,88,0,4155.128418,4155,4155,4287.563965,4178.461426,4162.436035,4154.743652,4154.615234,4127.563965,4115.256348,4069.102539,4118.205078,3968.333252,4114.871582,2109
1596313336,89,0,4161.153809,4155.512695,4161.538574,4291.282227,4185.512695,4164.358887,4155,4156.410156,4124.230957,4119.615234,4075.384521,4122.563965,3973.974365,4116.410156,3231
1596313336,90,0,4154.743652,4152.05127,4159.358887,4286.922852,4185.256348,4165.641113,4153.846191,4152.94873,4124.358887,4115.769043,4072.05127,4119.615234,3972.692383,4115,2857
1596313336,91,0,4156.153809,4152.05127,4158.077148,4290.512695,4189.358887,4167.436035,4154.102539,4156.282227,4132.692383,4119.615234,4071.153809,4120.897461,3974.358887,4114.743652,1821
1596313336,92,0,4171.410156,4157.692383,4162.94873,4298.589844,4193.974121,4169.487305,4159.102539,4161.922852,4136.666504,4126.666504,4076.538574,4132.563965,3988.205078,4123.461426,2109
1596313336,93,0,4170.512695,4154.230957,4163.333496,4293.333496,4187.820313,4166.666504,4162.436035,4160.641113,4134.615234,4122.692383,4077.435791,4137.563965,3988.461426,4126.410156,3231
1596313336,94,0,4156.794922,4144.615234,4160.641113,4285.384766,4182.179688,4161.410156,4156.153809,4154.871582,4135.384766,4117.820313,4073.205078,4125.641113,3971.153809,4116.153809,2857
1596313336,95,0,4157.563965,4144.230957,4161.922852,4295.512695,4183.717773,4163.717773,4152.436035,4152.94873,4133.846191,4119.358887,4073.974365,4124.487305,3972.564209,4115.256348,1821
1596313336,96,0,4164.743652,4151.922852,4164.358887,4304.102539,4189.358887,4165.641113,4155.256348,4155.641113,4129.487305,4122.563965,4079.487061,4134.871582,3987.435791,4125,2109
1596313336,97,0,4160.641113,4151.025879,4167.179688,4298.589844,4191.666504,4164.871582,4156.153809,4155.256348,4130.128418,4123.974121,4078.076904,4132.820313,3976.923096,4122.820313,3231
1596313336,98,0,4152.179688,4142.820313,4163.589844,4292.692383,4184.358887,4164.743652,4153.333496,4150.384766,4125.256348,4114.230957,4066.281982,4121.538574,3956.281982,4109.102539,2857
1596313336,99,0,4147.563965,4139.102539,4158.589844,4293.589844,4181.282227,4163.717773,4151.794922,4148.846191,4118.461426,4103.589844,4066.923096,4117.563965,3969.743652,4112.820313,1821
1596313336,100,0,4151.666504,4137.692383,4160.384766,4294.230957,4188.205078,4164.230957,4156.538574,4153.589844,4127.563965,4117.94873,4086.923096,4126.794922,4008.205078,4128.974121,2109
1596313336,101,0,4154.358887,4129.487305,4162.179688,4290.128418,4186.922852,4163.333496,4158.461426,4153.717773,4138.846191,4138.077148,4099.615234,4140.897461,4036.281982,4137.820313,3231
1596313336,102,0,4147.563965,4112.563965,4159.102539,4285.384766,4182.307617,4165,4154.743652,4154.102539,4143.333496,4149.102539,4108.717773,4153.461426,4062.435791,4144.358887,2857
1596313336,103,0,4140.641113,4101.153809,4155.256348,4278.846191,4186.538574,4170.128418,4160,4164.230957,4153.461426,4165.641113,4126.410156,4158.717773,4094.871826,4154.230957,1821
1596313336,104,0,4140,4096.153809,4156.666504,4276.410156,4187.436035,4171.282227,4174.230957,4173.846191,4166.922852,4186.025879,4139.487305,4163.717773,4119.487305,4160.897461,2109
1596313336,105,0,4139.487305,4087.564209,4157.436035,4275.769043,4183.333496,4164.358887,4168.974121,4171.410156,4171.666504,4199.230957,4146.666504,4171.538574,4143.333496,4163.461426,3231
1596313336,106,0,4134.871582,4076.025635,4154.871582,4267.692383,4183.077148,4164.102539,4156.282227,4167.94873,4167.94873,4205.384766,4153.589844,4170.769043,4165.128418,4166.282227,2857
1596313336,107,0,4131.666504,4070.897461,4153.717773,4263.846191,4184.102539,4171.282227,4163.717773,4175.641113,4171.538574,4211.794922,4160.256348,4168.077148,4180.769043,4171.153809,1821
1596313336,108,0,4134.743652,4069.487061,4159.487305,4271.410156,4184.871582,4170,4167.436035,4178.974121,4180.384766,4218.589844,4170.769043,4177.820313,4199.871582,4179.487305,2109
1596313336,109,0,4137.436035,4060.384521,4162.436035,4276.025879,4185.769043,4166.025879,4164.487305,4177.563965,4177.820313,4219.743652,4177.307617,4188.846191,4211.410156,4183.333496,3231
1596313336,110,0,4136.282227,4053.461426,4162.179688,4273.461426,4178.846191,4168.461426,4171.282227,4180.384766,4168.717773,4213.333496,4171.794922,4186.153809,4203.589844,4177.179688,2857
1596313336,111,0,4136.538574,4058.461426,4167.820313,4276.794922,4171.538574,4168.205078,4172.05127,4183.846191,4172.692383,4212.94873,4169.743652,4185.641113,4199.743652,4176.410156,1821
1596313336,112,0,4147.05127,4070.512939,4171.153809,4287.179688,4178.589844,4165.256348,4164.230957,4185.256348,4185.128418,4225.384766,4177.692383,4198.333496,4210.384766,4186.922852,2109
1596313336,113,0,4157.436035,4074.743652,4171.922852,4296.538574,4188.589844,4167.05127,4167.436035,4181.025879,4188.717773,4227.179688,4178.333496,4205.641113,4210.256348,4193.589844,3231
1596313336,114,0,4150.384766,4070.512939,4172.436035,4294.487305,4180.512695,4168.333496,4172.179688,4172.179688,4181.025879,4218.717773,4171.538574,4202.179688,4201.410156,4190.769043,2857
1596313336,115,0,4138.846191,4070.128174,4169.358887,4284.230957,4170.384766,4164.871582,4167.05127,4170.512695,4176.025879,4214.615234,4168.461426,4195.769043,4200.512695,4190.256348,1821
1596313336,116,0,4140,4073.461426,4165.128418,4287.692383,4175,4165.256348,4169.102539,4181.666504,4179.487305,4216.538574,4171.666504,4191.153809,4201.282227,4188.461426,2109
1596313336,117,0,4142.436035,4076.666748,4166.794922,4297.692383,4178.205078,4167.692383,4172.820313,4188.846191,4178.589844,4218.077148,4168.333496,4187.307617,4193.205078,4182.179688,3231
1596313336,118,0,4141.794922,4075.641113,4166.666504,4293.846191,4171.666504,4165.897461,4171.538574,4182.307617,4174.871582,4214.102539,4159.358887,4186.538574,4184.743652,4180.512695,2857
1596313336,119,0,4145.641113,4074.487061,4167.307617,4290.512695,4169.615234,4167.05127,4169.102539,4173.974121,4181.410156,4210,4159.871582,4189.358887,4185.256348,4183.077148,1821
1596313336,120,0,4144.487305,4076.153809,4171.922852,4295.128418,4175.769043,4171.666504,4175.512695,4173.333496,4186.538574,4209.102539,4166.410156,4189.615234,4186.153809,4183.333496,2109
1596313336,121,0,4137.563965,4078.205078,4167.692383,4294.230957,4175.512695,4175.641113,4193.333496,4173.717773,4178.974121,4207.820313,4163.974121,4187.179688,4183.205078,4180.897461,3231
1596313336,122,0,4137.563965,4077.94873,4161.282227,4296.282227,4170.512695,4175.128418,4195.512695,4169.358887,4176.922852,4209.102539,4160.641113,4189.871582,4182.94873,4179.102539,2857
1596313336,123,0,4139.615234,4078.205078,4165.512695,4303.974121,4172.179688,4172.820313,4177.563965,4175.256348,4187.179688,4218.717773,4168.461426,4194.487305,4185.769043,4183.717773,1821
1596313336,124,0,4140.897461,4081.538574,4170,4304.871582,4173.333496,4171.794922,4168.333496,4187.436035,4193.974121,4224.358887,4171.153809,4192.563965,4187.179688,4189.487305,2109
1596313336,125,0,4143.205078,4081.923096,4167.692383,4304.871582,4171.025879,4171.410156,4171.666504,4187.436035,4190.641113,4215.512695,4161.794922,4186.153809,4182.307617,4185.769043,3231
1596313336,126,0,4145.769043,4081.538574,4169.487305,4307.94873,4172.436035,4171.794922,4171.153809,4184.358887,4185.641113,4210.897461,4159.743652,4185.384766,4177.436035,4178.205078,2857
1596313336,127,0,4145.128418,4084.487061,4173.333496,4308.461426,4172.94873,4170,4168.589844,4182.179688,4181.794922,4212.563965,4164.615234,4191.410156,4177.307617,4179.615234,57
1596313336,0,0,4144.615234,4090.641113,4173.461426,4310.256348,4169.871582,4168.461426,4170.512695,4178.077148,4179.615234,4209.230957,4167.05127,4196.794922,4180.128418,4184.487305,2689
1596313336,1,0,4148.205078,4093.718018,4176.922852,4315.897461,4173.333496,4169.487305,4173.461426,4175.897461,4185.256348,4203.846191,4166.025879,4196.282227,4177.179688,4184.487305,2892
1596313336,2,0,4152.179688,4092.05127,4178.974121,4319.358887,4181.025879,4171.153809,4175.256348,4178.589844,4186.153809,4201.410156,4162.563965,4194.487305,4173.846191,4184.358887,3439
1596313336,3,0,4155,4095.512939,4180.512695,4324.615234,4185,4168.205078,4172.563965,4179.615234,4182.436035,4209.102539,4161.025879,4199.102539,4182.179688,4191.922852,1905
1596313336,4,0,4151.282227,4097.692383,4180.512695,4328.205078,4183.461426,4167.692383,4181.153809,4177.94873,4182.307617,4213.589844,4159.358887,4199.871582,4184.487305,4191.025879,3529
1596313336,5,0,4137.820313,4095.128174,4173.461426,4322.692383,4176.153809,4173.333496,4190.256348,4173.846191,4177.05127,4201.922852,4153.846191,4186.922852,4172.179688,4179.871582,1134
1596313336,6,0,4134.871582,4097.05127,4167.820313,4321.153809,4169.358887,4169.487305,4169.615234,4170.897461,4175.128418,4198.589844,4157.820313,4183.333496,4172.692383,4181.666504,3412
1596313336,7,0,4149.230957,4101.794922,4176.153809,4332.307617,4173.461426,4162.179688,4148.717773,4171.666504,4181.282227,4212.820313,4171.025879,4195.769043,4187.563965,4188.717773,2625
1596313336,8,0,4156.794922,4104.487305,4184.487305,4339.743652,4181.282227,4168.461426,4160.512695,4172.563965,4180.641113,4216.922852,4170.641113,4198.974121,4188.333496,4185.512695,3364
1596313336,9,0,4152.436035,4105.384766,4181.538574,4336.282227,4182.307617,4174.743652,4175.769043,4176.282227,4178.077148,4209.871582,4163.846191,4194.102539,4179.871582,4186.282227,3536
1596313336,10,0,4152.94873,4106.538574,4180.769043,4337.94873,4183.974121,4170.641113,4172.307617,4179.743652,4186.666504,4214.358887,4167.307617,4201.025879,4182.94873,4195,2840
1596313336,11,0,4149.358887,4106.153809,4180.256348,4343.717773,4185.384766,4168.846191,4168.333496,4175.769043,4190,4220.897461,4169.230957,4199.230957,4186.794922,4192.563965,1800
1596313336,12,0,4136.410156,4105.897461,4175.384766,4340.128418,4174.743652,4169.615234,4169.358887,4171.794922,4180.128418,4212.05127,4162.820313,4183.846191,4181.666504,4180.769043,2106
1596313336,13,0,4132.179688,4106.282227,4172.05127,4337.05127,4167.179688,4168.846191,4171.153809,4177.179688,4178.333496,4201.538574,4157.820313,4180.512695,4172.05127,4178.846191,3234
1596313336,14,0,4135.897461,4108.846191,4169.615234,4340,4176.794922,4173.461426,4171.410156,4187.179688,4186.922852,4205.512695,4156.666504,4185,4168.589844,4180.769043,2840
1596313336,15,0,4137.05127,4110,4170,4340.128418,4180.384766,4176.025879,4175.897461,4189.230957,4188.846191,4212.307617,4156.153809,4183.846191,4175.897461,4181.666504,1800
1596313336,16,0,4138.333496,4109.487305,4175.897461,4340.512695,4171.794922,4173.589844,4184.615234,4183.077148,4183.461426,4212.563965,4156.922852,4186.025879,4183.205078,4185.897461,0
1596313336,17,0,4141.794922,4111.410156,4179.615234,4345.897461,4172.436035,4172.179688,4179.358887,4178.205078,4183.974121,4210.256348,4158.846191,4190.256348,4178.333496,4186.538574,0
1596313336,18,0,4136.025879,4109.358887,4172.179688,4340.769043,4171.025879,4169.487305,4167.436035,4180,4187.436035,4205.256348,4158.974121,4184.743652,4169.743652,4178.077148,0
1596313336,19,0,4125.769043,4105.384766,4167.563965,4331.025879,4163.077148,4169.102539,4170.641113,4182.692383,4187.563965,4200.256348,4155.641113,4178.461426,4169.871582,4173.333496,0
1596313336,20,0,4127.05127,4104.487305,4172.05127,4332.436035,4164.743652,4170,4174.358887,4182.692383,4189.743652,4200.384766,4153.333496,4180.384766,4170.384766,4178.974121,0
1596313336,21,0,4133.205078,4105.128418,4175.512695,4335.897461,4169.102539,4167.436035,4170,4184.487305,4190.769043,4201.025879,4153.974121,4185,4167.820313,4181.153809,0
1596313336,22,0,4137.820313,4108.717773,4180.769043,4337.563965,4169.743652,4170.384766,4179.743652,4193.974121,4189.102539,4202.563965,4156.794922,4193.461426,4172.307617,4185,0
1596313336,23,0,4140.641113,4111.794922,4183.333496,4340.897461,4170.769043,4173.333496,4191.025879,4201.794922,4191.410156,4205.512695,4158.589844,4197.307617,4176.282227,4187.05127,0
1596313336,24,0,4138.974121,4108.333496,4180,4338.717773,4170.897461,4170.512695,4183.589844,4200.256348,4194.358887,4199.358887,4155,4189.102539,4169.230957,4181.794922,0
1596313336,25,0,4131.794922,4103.077148,4176.922852,4332.05127,4164.743652,4172.179688,4184.871582,4199.487305,4192.436035,4188.205078,4152.436035,4182.307617,4160.641113,4176.538574,0
1596313336,26,0,4129.102539,4106.922852,4176.282227,4336.410156,4160.256348,4176.538574,4196.922852,4201.666504,4186.538574,4187.307617,4151.666504,4183.717773,4161.153809,4175,0
1596313336,27,0,4134.102539,4112.563965,4178.974121,4344.487305,4166.922852,4172.436035,4186.025879,4196.282227,4187.563965,4197.692383,4151.025879,4188.077148,4166.666504,4180.512695,0
1596313336,28,0,4144.615234,4115.641113,4185.128418,4344.743652,4174.615234,4167.94873,4163.846191,4192.94873,4198.205078,4209.615234,4158.846191,4197.179688,4178.717773,4191.666504,0
1596313336,29,0,4152.307617,4117.179688,4191.794922,4348.333496,4171.794922,4170.897461,4165.256348,4195.769043,4202.94873,4217.563965,4168.205078,4208.333496,4181.538574,4196.025879,0
1596313336,30,0,4147.94873,4115.128418,4191.410156,4349.102539,4166.666504,4171.538574,4173.846191,4194.743652,4197.692383,4217.307617,4165.512695,4205.512695,4168.077148,4188.461426,0
1596313336,31,0,4143.461426,4113.077148,4187.820313,4342.563965,4171.410156,4168.077148,4172.692383,4194.615234,4198.461426,4214.871582,4164.358887,4198.333496,4172.820313,4187.94873,0
1596313336,32,0,4143.846191,4111.794922,4183.846191,4341.282227,4176.922852,4169.871582,4171.794922,4200.897461,4202.307617,4219.358887,4175,4199.743652,4191.922852,4192.179688,0
1596313336,33,0,4140.256348,4106.153809,4181.666504,4341.538574,4170.512695,4172.307617,4170,4202.05127,4203.461426,4227.05127,4182.05127,4203.974121,4201.538574,4191.794922,0
1596313336,34,0,4129.487305,4092.179443,4176.538574,4330.384766,4162.436035,4171.922852,4173.205078,4192.307617,4202.692383,4224.871582,4183.717773,4202.307617,4210.769043,4191.410156,0
1596313336,35,0,4118.461426,4084.358887,4166.025879,4318.846191,4163.461426,4174.358887,4185.641113,4183.974121,4197.436035,4213.717773,4184.743652,4194.871582,4219.871582,4188.077148,0
1596313336,36,0,4119.871582,4092.307617,4164.743652,4324.615234,4170.641113,4175.128418,4191.153809,4190.384766,4201.025879,4220.384766,4186.025879,4195.128418,4220.512695,4189.358887,0
1596313336,37,0,4132.179688,4102.563965,4174.102539,4337.563965,4172.692383,4172.692383,4181.538574,4201.794922,4214.487305,4238.461426,4194.102539,4202.692383,4226.538574,4198.077148,0
1596313336,38,0,4136.025879,4102.94873,4178.077148,4340.384766,4170.897461,4173.589844,4173.846191,4203.333496,4216.794922,4241.410156,4199.102539,4204.743652,4237.436035,4200.128418,0
1596313336,39,0,4130.128418,4099.358887,4170.256348,4327.307617,4173.589844,4175.512695,4174.102539,4197.436035,4209.358887,4234.358887,4190.512695,4200.128418,4231.666504,4193.846191,0
1596313336,40,0,4132.820313,4100.256348,4167.307617,4322.05127,4176.153809,4170.512695,4173.717773,4192.692383,4203.717773,4234.615234,4183.589844,4199.358887,4222.05127,4195,0
1596313336,41,0,4138.333496,4102.94873,4172.436035,4337.05127,4172.436035,4170.128418,4173.461426,4190.256348,4198.461426,4233.077148,4186.794922,4204.358887,4221.153809,4198.717773,0
1596313336,42,0,4137.563965,4106.410156,4173.974121,4344.102539,4170,4175.769043,4175.641113,4190.128418,4200.897461,4221.410156,4187.307617,4201.153809,4220.641113,4193.717773,0
1596313336,43,0,4136.410156,4105.384766,4170.641113,4334.230957,4172.692383,4171.282227,4175.641113,4186.922852,4203.974121,4215.897461,4182.692383,4191.922852,4215.769043,4190.128418,0
1596313336,44,0,4136.538574,4102.692383,4168.589844,4328.333496,4172.179688,4163.717773,4171.794922,4181.410156,4191.410156,4214.230957,4180.897461,4189.487305,4212.563965,4189.230957,0
1596313336,45,0,4140.128418,4107.820313,4171.922852,4338.974121,4170.897461,4167.94873,4175.512695,4183.461426,4188.589844,4216.538574,4185.769043,4196.666504,4224.230957,4191.794922,0
1596313336,46,0,4138.974121,4108.205078,4172.563965,4343.077148,4172.307617,4178.077148,4188.461426,4188.333496,4193.717773,4214.102539,4185.128418,4194.615234,4226.410156,4191.922852,0
1596313336,47,0,4129.487305,4098.461426,4171.025879,4332.820313,4169.871582,4176.153809,4191.025879,4186.922852,4184.871582,4203.974121,4172.563965,4183.205078,4211.794922,4183.846191,0
1596313336,48,0,4130.256348,4099.615234,4171.922852,4333.846191,4173.461426,4172.436035,4185.769043,4188.205078,4185.128418,4205.256348,4168.077148,4181.282227,4212.05127,4182.692383,0
1596313336,49,0,4137.94873,4108.717773,4172.692383,4343.974121,4186.410156,4174.615234,4186.922852,4192.436035,4200,4209.230957,4171.794922,4185,4221.410156,4187.820313,0
1596313336,50,0,4137.179688,4109.358887,4173.717773,4344.230957,4186.794922,4170.897461,4183.974121,4190.769043,4198.589844,4202.94873,4171.794922,4188.717773,4218.589844,4190.769043,0
1596313336,51,0,4137.307617,4107.94873,4175.641113,4341.282227,4173.461426,4167.307617,4171.666504,4185.384766,4185.384766,4199.615234,4170.384766,4192.307617,4216.025879,4190,0
1596313336,52,0,4139.743652,4107.820313,4173.205078,4341.666504,4168.077148,4168.717773,4169.615234,4186.025879,4183.846191,4200.641113,4168.974121,4188.205078,4214.102539,4186.666504,0
1596313336,53,0,4133.205078,4105.769043,4167.820313,4335,4175,4168.461426,4175.512695,4185.769043,4186.282227,4194.743652,4167.05127,4183.461426,4206.922852,4181.153809,0
1596313336,54,0,4130.512695,4108.717773,4170.769043,4330.128418,4175.897461,4165.512695,4173.974121,4182.820313,4185.384766,4194.487305,4168.974121,4185.512695,4209.102539,4179.871582,0
1596313336,55,0,4135.897461,4113.461426,4173.333496,4334.871582,4170,4163.461426,4169.102539,4181.153809,4182.307617,4200.384766,4169.487305,4184.230957,4213.077148,4181.666504,0
1596313336,56,0,4137.692383,4115.256348,4174.358887,4340.897461,4174.230957,4166.538574,4169.871582,4181.794922,4184.615234,4199.230957,4167.307617,4180.641113,4208.077148,4181.410156,0
1596313336,57,0,4138.333496,4112.94873,4178.974121,4343.974121,4181.794922,4169.871582,4176.282227,4190.128418,4195.128418,4198.077148,4168.974121,4183.077148,4205.769043,4181.538574,0
1596313336,58,0,4137.307617,4111.410156,4177.563965,4339.358887,4172.179688,4166.410156,4172.307617,4188.077148,4188.846191,4191.538574,4166.794922,4180.128418,4203.077148,4177.563965,0
1596313336,59,0,4136.922852,4118.205078,4171.666504,4336.153809,4162.307617,4162.692383,4158.077148,4170.641113,4168.974121,4181.666504,4163.461426,4177.563965,4200.512695,4179.743652,0
1596313336,60,0,4143.461426,4125.512695,4173.846191,4339.487305,4174.102539,4166.666504,4161.666504,4172.179688,4172.692383,4187.820313,4167.820313,4184.102539,4207.436035,4187.820313,0
1596313336,61,0,4153.333496,4125,4182.436035,4342.179688,4183.846191,4169.487305,4173.333496,4187.692383,4191.282227,4198.717773,4172.436035,4188.077148,4211.794922,4187.94873,0
1596313336,62,0,4153.333496,4123.846191,4184.230957,4341.538574,4179.743652,4169.102539,4173.846191,4187.436035,4187.94873,4193.846191,4168.589844,4185.128418,4203.589844,4184.230957,0
1596313336,63,0,4151.153809,4125.128418,4181.282227,4341.153809,4177.436035,4170.512695,4175.256348,4181.025879,4178.974121,4189.743652,4165.897461,4185.256348,4201.666504,4190.512695,0
1596313336,64,0,4153.077148,4125.641113,4178.846191,4340,4178.589844,4166.153809,4166.794922,4179.230957,4185.256348,4195.641113,4171.153809,4188.077148,4206.153809,4194.487305,2694
1596313336,65,0,4148.717773,4128.974121,4179.230957,4341.025879,4177.94873,4163.846191,4149.487305,4173.589844,4185.769043,4192.436035,4171.666504,4185.897461,4203.333496,4185.512695,2889
1596313336,66,0,4145.128418,4129.230957,4179.358887,4343.589844,4177.05127,4166.538574,4159.358887,4176.922852,4178.974121,4187.307617,4166.282227,4184.358887,4199.230957,4183.974121,3437
1596313336,67,0,4150.128418,4128.205078,4178.077148,4341.282227,4174.358887,4166.538574,4175.128418,4186.282227,4184.102539,4195.897461,4168.589844,4190.641113,4204.487305,4190.641113,1897
1596313336,68,0,4155.897461,4136.153809,4182.94873,4342.820313,4171.410156,4166.666504,4164.871582,4185.256348,4190,4204.743652,4174.358887,4195.256348,4212.820313,4192.820313,3529
1596313336,69,0,4154.615234,4140,4187.820313,4349.230957,4178.589844,4167.692383,4161.794922,4183.333496,4185.512695,4201.794922,4173.077148,4193.589844,4214.102539,4192.05127,1129
1596313336,70,0,4154.102539,4137.05127,4185.897461,4349.615234,4185.641113,4169.743652,4171.794922,4181.794922,4184.102539,4197.692383,4171.282227,4193.333496,4207.563965,4191.794922,3410
1596313336,71,0,4158.461426,4138.717773,4183.589844,4346.153809,4181.538574,4170.641113,4171.025879,4174.871582,4186.282227,4196.538574,4171.282227,4192.179688,4202.05127,4189.615234,2625
1596313336,72,0,4151.666504,4137.692383,4180.641113,4341.410156,4170.641113,4168.589844,4165.128418,4168.589844,4178.974121,4186.538574,4169.230957,4181.538574,4198.717773,4184.871582,3365
1596313336,73,0,4144.615234,4132.179688,4176.282227,4341.025879,4166.410156,4164.743652,4164.871582,4173.846191,4177.05127,4179.743652,4169.358887,4176.538574,4197.94873,4180.897461,3537
1596313336,74,0,4146.666504,4135.641113,4176.282227,4344.615234,4172.692383,4168.077148,4173.205078,4185.641113,4187.563965,4188.077148,4168.461426,4182.94873,4195.512695,4177.820313,2832
1596313336,75,0,4147.820313,4139.615234,4179.230957,4348.077148,4175.769043,4172.307617,4187.692383,4189.871582,4190,4194.102539,4166.282227,4184.871582,4193.974121,4180.128418,1818
1596313336,76,0,4143.461426,4136.922852,4178.846191,4347.307617,4171.794922,4170.641113,4186.153809,4185.384766,4181.538574,4187.94873,4166.922852,4181.794922,4198.333496,4183.846191,2107
1596313336,77,0,4146.153809,4137.692383,4179.871582,4347.179688,4172.05127,4169.487305,4169.230957,4183.333496,4180.897461,4182.820313,4168.333496,4183.846191,4199.358887,4184.871582,3233
1596313336,78,0,4153.333496,4139.871582,4183.461426,4349.743652,4177.94873,4171.025879,4168.589844,4185.256348,4181.666504,4185.641113,4169.230957,4190.256348,4198.461426,4187.692383,2832
1596313336,79,0,4153.461426,4141.153809,4184.487305,4351.794922,4177.820313,4171.153809,4181.538574,4186.922852,4180.512695,4192.436035,4176.025879,4195.897461,4208.077148,4190.897461,1818
1596313336,80,0,4154.743652,4145.641113,4187.692383,4353.461426,4170.641113,4169.743652,4182.436035,4189.871582,4190,4201.153809,4180.512695,4200.128418,4216.410156,4192.179688,2107
1596313336,81,0,4156.410156,4147.563965,4188.846191,4354.230957,4169.358887,4170.897461,4178.717773,4192.436035,4204.871582,4205,4175.384766,4201.153809,4207.05127,4190.384766,3233
1596313336,82,0,4155.512695,4142.94873,4185.256348,4354.871582,4174.871582,4171.153809,4178.974121,4193.077148,4204.102539,4201.538574,4171.410156,4197.179688,4198.333496,4191.153809,2832
1596313336,83,0,4154.743652,4140.128418,4183.077148,4351.538574,4174.615234,4168.461426,4177.692383,4190,4189.358887,4193.717773,4170.769043,4191.666504,4199.871582,4189.102539,1818
1596313336,84,0,4154.871582,4147.179688,4185,4346.153809,4170.769043,4168.333496,4176.410156,4186.153809,4185.641113,4189.102539,4170.641113,4189.487305,4203.205078,4184.615234,2107
1596313336,85,0,4155,4150.256348,4184.615234,4348.077148,4171.538574,4170.256348,4175.256348,4184.487305,4189.358887,4189.102539,4170.256348,4188.205078,4202.05127,4183.589844,3233
1596313336,86,0,4150.384766,4142.307617,4179.230957,4349.230957,4168.461426,4170,4167.436035,4180.641113,4179.871582,4182.307617,4166.538574,4180.384766,4193.589844,4182.563965,2832
1596313337,87,0,4150.128418,4143.589844,4183.333496,4350.128418,4167.692383,4169.230957,4171.153809,4180.512695,4179.615234,4182.05127,4165.384766,4181.538574,4196.025879,4183.846191,1818
1596313337,88,0,4157.436035,4154.615234,4189.230957,4354.358887,4177.820313,4172.94873,4184.743652,4186.538574,4196.410156,4197.94873,4170.897461,4197.307617,4208.333496,4190.384766,2107
1596313337,89,0,4158.717773,4154.487305,4183.333496,4351.922852,4178.589844,4175.512695,4178.974121,4187.563965,4193.461426,4198.461426,4171.794922,4195.256348,4204.358887,4188.846191,3233
1596313337,90,0,4151.922852,4147.436035,4179.615234,4347.563965,4167.179688,4173.333496,4169.871582,4180.897461,4177.563965,4183.205078,4165.897461,4177.820313,4194.487305,4177.307617,2832
1596313337,91,0,4150.512695,4151.922852,4182.307617,4350,4171.922852,4169.487305,4180.769043,4180.128418,4182.692383,4182.563965,4167.179688,4177.436035,4197.436035,4177.820313,1818
1596313337,92,0,4153.077148,4155.256348,4180.641113,4347.05127,4180.384766,4172.179688,4191.794922,4183.077148,4186.666504,4186.153809,4167.179688,4183.461426,4193.589844,4183.461426,2107
1596313337,93,0,4153.205078,4151.410156,4182.563965,4339.487305,4175.256348,4174.102539,4177.94873,4181.538574,4177.563965,4180.512695,4164.102539,4182.179688,4184.487305,4178.589844,3233
1596313337,94,0,4159.358887,4154.102539,4190.384766,4342.05127,4176.922852,4166.666504,4159.230957,4173.333496,4181.538574,4182.563965,4168.974121,4186.025879,4194.230957,4180.128418,2832
1596313337,95,0,4163.589844,4160.512695,4185.769043,4341.410156,4182.692383,4162.179688,4160.128418,4168.205078,4187.307617,4188.461426,4173.846191,4190.256348,4205.128418,4190.128418,1818
1596313337,96,0,4156.410156,4157.692383,4177.94873,4327.307617,4179.871582,4169.487305,4169.487305,4177.05127,4180.384766,4187.179688,4170.512695,4185.897461,4201.922852,4190.641113,2107
1596313337,97,0,4151.025879,4152.05127,4179.487305,4320.256348,4177.94873,4174.871582,4168.846191,4182.692383,4176.410156,4185.256348,4167.563965,4184.358887,4196.153809,4181.153809,3233
1596313337,98,0,4151.794922,4154.102539,4176.922852,4314.230957,4172.436035,4165.384766,4157.179688,4173.077148,4174.487305,4182.94873,4169.743652,4182.05127,4192.05127,4176.922852,2832
1596313337,99,0,4150.641113,4154.230957,4173.077148,4297.820313,4164.743652,4161.025879,4152.179688,4166.025879,4167.692383,4181.025879,4167.05127,4177.436035,4188.717773,4180,1818
1596313337,100,0,4151.410156,4153.333496,4177.307617,4291.794922,4173.974121,4171.153809,4162.94873,4170.256348,4170.512695,4184.487305,4165.256348,4179.743652,4192.563965,4184.743652,2107
1596313337,101,0,4162.692383,4161.922852,4181.794922,4296.282227,4182.563965,4172.563965,4173.717773,4171.538574,4183.205078,4188.717773,4170.384766,4190.384766,4201.153809,4188.974121,3233
1596313337,102,0,4171.538574,4167.94873,4181.794922,4289.358887,4176.666504,4168.589844,4175.641113,4173.461426,4187.436035,4189.358887,4174.230957,4194.743652,4201.922852,4191.666504,2832
1596313337,103,0,4170.512695,4166.153809,4183.846191,4278.974121,4175.897461,4171.153809,4175.512695,4181.794922,4186.794922,4192.94873,4175.897461,4196.025879,4199.615234,4195.641113,1818
1596313337,104,0,4167.692383,4161.922852,4183.461426,4275.769043,4176.153809,4167.563965,4173.589844,4184.102539,4187.820313,4198.846191,4175.769043,4197.692383,4201.410156,4192.692383,2107
1596313337,105,0,4167.820313,4159.487305,4177.820313,4267.179688,4171.025879,4163.589844,4169.743652,4177.820313,4187.692383,4198.333496,4172.436035,4190.384766,4201.153809,4187.563965,3233
1596313337,106,0,4169.615234,4160.384766,4180.256348,4261.538574,4175.384766,4171.666504,4174.358887,4174.871582,4186.922852,4196.282227,4170.769043,4182.436035,4195.512695,4190.769043,2832
1596313337,107,0,4169.871582,4164.743652,4187.563965,4263.205078,4181.922852,4176.794922,4176.153809,4180.256348,4184.615234,4194.358887,4173.461426,4186.025879,4193.846191,4194.871582,1818
1596313337,108,0,4169.102539,4162.563965,4185.641113,4255.641113,4174.615234,4173.077148,4169.230957,4180.256348,4181.538574,4191.025879,4173.589844,4191.153809,4198.717773,4190.128418,2107
1596313337,109,0,4169.230957,4160.256348,4180,4247.692383,4172.307617,4172.563965,4176.282227,4179.230957,4183.846191,4190.512695,4170.897461,4187.820313,4200.769043,4189.230957,3233
1596313337,110,0,4165.897461,4160.641113,4179.487305,4247.307617,4172.563965,4172.436035,4182.436035,4180.128418,4187.563965,4188.589844,4171.794922,4185.128418,4194.487305,4190.641113,2832
1596313337,111,0,4161.538574,4156.666504,4176.666504,4243.589844,4167.05127,4169.102539,4170.769043,4177.307617,4183.846191,4182.94873,4171.538574,4186.153809,4190.256348,4184.358887,1818
1596313337,112,0,4165.769043,4158.589844,4178.846191,4243.205078,4174.615234,4169.102539,4164.230957,4175.384766,4183.461426,4183.461426,4170.512695,4186.922852,4192.820313,4184.230957,2107
1596313337,113,0,4173.333496,4166.282227,4187.94873,4248.717773,4187.179688,4170.512695,4170.512695,4176.794922,4187.179688,4187.436035,4169.102539,4190.384766,4191.538574,4191.410156,3233
1596313337,114,0,4171.666504,4163.333496,4188.461426,4248.589844,4184.102539,4169.358887,4173.333496,4172.436035,4180.641113,4181.282227,4168.205078,4191.794922,4186.538574,4191.410156,2832
1596313337,115,0,4168.717773,4155.769043,4185.769043,4246.153809,4178.846191,4168.974121,4169.743652,4168.077148,4173.205078,4177.436035,4168.974121,4190,4184.230957,4187.179688,1818
1596313337,116,0,4169.358887,4157.307617,4186.922852,4245.256348,4178.205078,4174.102539,4171.666504,4178.717773,4178.846191,4183.461426,4169.487305,4189.102539,4184.487305,4189.230957,2107
1596313337,117,0,4168.589844,4159.743652,4182.05127,4244.102539,4175,4176.794922,4172.179688,4186.025879,4190,4187.307617,4169.102539,4189.358887,4184.487305,4188.846191,3233
1596313337,118,0,4168.461426,4157.94873,4177.05127,4247.563965,4178.077148,4169.358887,4169.102539,4183.461426,4192.692383,4190.384766,4170.512695,4188.461426,4182.563965,4183.077148,2832
1596313337,119,0,4163.461426,4155.769043,4177.94873,4245.128418,4182.307617,4167.692383,4176.025879,4186.410156,4188.974121,4192.05127,4170.769043,4184.615234,4178.077148,4183.077148,1818
1596313337,120,0,4153.974121,4150.897461,4170.769043,4230.384766,4171.666504,4171.666504,4181.538574,4184.102539,4177.94873,4180.897461,4160.512695,4177.692383,4167.563965,4182.179688,2107
1596313337,121,0,4149.230957,4150,4162.820313,4226.538574,4165.641113,4168.077148,4174.102539,4172.436035,4166.025879,4169.743652,4149.615234,4170.769043,4158.461426,4177.307617,3233
1596313337,122,0,4154.102539,4153.717773,4171.538574,4240.512695,4179.230957,4169.102539,4168.717773,4168.333496,4172.179688,4178.077148,4156.538574,4174.615234,4162.307617,4178.461426,2832
1596313337,123,0,4160.512695,4155.384766,4179.230957,4248.589844,4183.461426,4176.410156,4176.282227,4172.820313,4186.410156,4187.179688,4165.897461,4181.153809,4171.922852,4183.717773,1818
1596313337,124,0,4159.358887,4152.436035,4174.743652,4244.871582,4170,4174.358887,4179.358887,4175.512695,4185.128418,4182.179688,4163.846191,4176.025879,4169.871582,4180.384766,2107
1596313337,125,0,4159.487305,4153.077148,4172.05127,4242.692383,4168.589844,4168.589844,4172.307617,4181.410156,4182.692383,4186.153809,4163.717773,4174.487305,4166.794922,4182.05127,3233
1596313337,126,0,4165.641113,4153.589844,4179.102539,4244.102539,4177.436035,4171.922852,4168.205078,4187.94873,4193.974121,4193.974121,4166.794922,4180.641113,4170.641113,4188.333496,2832
1596313337,127,0,4166.153809,4152.94873,4181.282227,4243.846191,4176.538574,4175.128418,4171.153809,4188.077148,4195.384766,4187.94873,4160.897461,4176.538574,4166.794922,4183.333496,57
1596313337,0,0,4163.974121,4153.589844,4177.692383,4244.230957,4173.846191,4172.820313,4175.769043,4182.179688,4186.410156,4183.974121,4159.615234,4170.769043,4162.436035,4182.820313,2679
1596313337,1,0,4169.487305,4152.179688,4177.692383,4245.512695,4178.589844,4175.512695,4179.743652,4172.820313,4180.128418,4182.94873,4162.94873,4174.358887,4165.128418,4189.615234,2889
1596313337,2,0,4170.769043,4152.820313,4175.128418,4242.307617,4174.871582,4177.436035,4189.358887,4166.922852,4170.512695,4171.025879,4161.153809,4173.077148,4165.256348,4186.666504,3432
1596313337,3,0,4168.077148,4158.846191,4174.487305,4245.769043,4168.846191,4170.897461,4182.307617,4168.846191,4172.05127,4172.179688,4165.897461,4173.717773,4168.717773,4185.128418,1897
1596313337,4,0,4172.179688,4162.436035,4178.333496,4251.282227,4174.487305,4166.794922,4159.358887,4172.94873,4185.769043,4186.282227,4171.153809,4181.794922,4170.641113,4191.922852,3526
1596313337,5,0,4177.436035,4161.922852,4179.615234,4248.589844,4182.563965,4171.282227,4156.282227,4174.230957,4187.05127,4187.05127,4167.820313,4183.974121,4166.922852,4193.205078,1136
